Wavelength(nm)	n	k
200	1.396	0
225	1.373	0
250	1.362	0
275	1.354	0
300	1.349	0
325	1.346	0
350	1.343	0
375	1.341	0
400	1.339	0
425	1.338	0
450	1.337	0
475	1.336	0
500	1.335	0
525	1.334	0
550	1.333	0
575	1.333	0
600	1.332	0
625	1.332	0
650	1.331	0
675	1.331	0
700	1.331	0
725	1.330	0
750	1.330	0
775	1.330	0
800	1.329	0
825	1.329	0
850	1.329	0
875	1.328	0
900	1.328	0
925	1.328	0
950	1.327	0
975	1.327	0